
    Thermo 2.0
    ==========

Copyright (C) 2014-2017-2019 Simone Conti
Copyright (C) 2015-2016 Universit√© de Strasbourg
License GPLv3+: GNU GPL version 3 or later <http://gnu.org/licenses/gpl.html>.
This is free software: you are free to change and redistribute it.
There is NO WARRANTY, to the extent permitted by law.

Written by Simone Conti.


Molecule A: <rig.inp>                
---------------------------------------------

Parsed thermodynamic quantities:
   Temperature [K]:           300
   Number of moles [mol]:     1
   Volume [dm^3]:             1
   Concentration [M]:         1
   Molecular mass [g/mol]:    10163
   Molar energy [kcal/mol]:   -3082.420000
   Degree of freedom:
      translational:          3
      rotational:             3
         moments of inerzia [g/mol/A^2]:
            734546.500000
            1142238.000000
            1233993.000000
         symmetry number:     1
      vibrational modes:      4320
         frequencies [1/cm]: 
   4.572000     6.507000     6.728000     7.317000     7.833000     9.382000  
   9.700000     9.781000    10.333000    10.959000    11.619000    11.906000  
  12.135000    12.260000    13.051000    13.331000    13.747000    14.358000  
  14.746000    14.992000    15.327000    15.649000    15.749000    16.069000  
  16.349000    16.780000    17.562000    17.630000    17.948000    18.429000  
  18.660000    19.061000    19.344000    19.780000    19.953000    20.306000  
  20.719000    20.908000    21.134000    21.474000    21.694000    22.148000  
  22.475000    22.835000    23.024000    23.444000    23.527000    24.184000  
  24.273000    24.663000    24.801000    24.983000    25.542000    25.939000  
  26.231000    26.388000    26.606000    27.073000    27.153000    27.595000  
  27.818000    28.260000    28.385000    28.929000    29.283000    29.564000  
  29.940000    30.325000    30.474000    30.905000    31.171000    31.363000  
  31.540000    32.229000    32.434000    32.611000    32.707000    33.028000  
  33.179000    33.360000    33.691000    33.740000    34.372000    34.747000  
  34.878000    35.215000    35.516000    35.773000    36.374000    36.510000  
  36.647000    36.913000    37.268000    37.713000    37.775000    38.262000  
  38.919000    39.037000    39.178000    39.399000    39.481000    39.753000  
  40.000000    40.516000    40.637000    40.822000    41.047000    41.357000  
  41.828000    42.042000    42.373000    42.566000    42.787000    43.375000  
  43.747000    43.970000    44.135000    44.279000    44.806000    45.214000  
  45.266000    45.442000    45.501000    46.258000    46.483000    47.038000  
  47.197000    47.431000    47.548000    47.978000    48.231000    48.332000  
  48.754000    48.969000    49.374000    49.626000    50.033000    50.312000  
  50.409000    50.915000    51.068000    51.516000    51.755000    52.145000  
  52.388000    52.644000    52.855000    53.282000    53.961000    54.292000  
  54.473000    54.682000    54.846000    55.073000    55.219000    55.501000  
  55.605000    55.978000    56.200000    56.439000    56.731000    56.993000  
  57.364000    57.548000    57.697000    57.930000    58.126000    58.661000  
  58.767000    59.145000    59.378000    59.788000    60.135000    60.176000  
  60.462000    61.063000    61.474000    61.567000    61.782000    62.031000  
  62.302000    62.569000    62.812000    63.038000    63.131000    63.324000  
  63.842000    64.111000    64.393000    64.540000    64.854000    65.137000  
  65.571000    65.775000    66.021000    66.322000    66.792000    67.203000  
  67.336000    67.584000    67.651000    67.739000    67.885000    68.589000  
  68.852000    68.935000    69.071000    69.303000    69.655000    69.748000  
  70.050000    70.509000    70.670000    71.054000    71.117000    71.455000  
  71.727000    72.115000    72.515000    72.687000    72.869000    73.187000  
  73.417000    74.070000    74.182000    74.555000    75.010000    75.208000  
  75.433000    75.707000    75.917000    76.174000    76.500000    76.649000  
  76.916000    77.351000    77.753000    78.041000    78.245000    78.439000  
  78.817000    79.313000    79.406000    79.781000    80.134000    80.689000  
  81.074000    81.254000    81.415000    81.977000    82.141000    82.641000  
  82.885000    83.246000    83.653000    83.850000    84.024000    84.312000  
  84.598000    84.644000    84.992000    85.616000    85.842000    86.050000  
  86.213000    86.725000    86.778000    87.284000    87.635000    87.927000  
  88.022000    88.362000    88.662000    88.866000    89.032000    89.454000  
  89.984000    90.502000    90.755000    91.108000    91.427000    91.756000  
  92.388000    92.506000    93.091000    93.528000    93.643000    93.962000  
  94.043000    94.752000    94.869000    95.025000    95.185000    95.322000  
  95.854000    96.234000    96.563000    96.812000    97.398000    97.627000  
  97.819000    98.391000    98.532000    98.799000    99.439000    99.561000  
 100.046000   100.508000   101.145000   101.462000   101.737000   101.850000  
 102.163000   102.224000   102.620000   102.686000   103.507000   103.857000  
 104.166000   104.207000   104.699000   104.777000   104.914000   105.580000  
 105.625000   105.937000   106.217000   106.453000   106.745000   107.006000  
 107.456000   107.815000   108.150000   108.383000   108.490000   108.991000  
 109.478000   109.574000   109.782000   110.199000   111.040000   111.203000  
 111.754000   112.492000   112.586000   112.661000   112.952000   113.206000  
 113.543000   113.713000   114.059000   114.748000   114.788000   115.217000  
 115.327000   115.456000   115.747000   116.346000   116.554000   116.846000  
 117.245000   117.829000   118.269000   118.569000   118.832000   119.419000  
 119.699000   119.941000   120.210000   120.946000   121.415000   121.989000  
 122.170000   122.380000   122.482000   122.550000   123.315000   123.408000  
 123.647000   123.698000   124.308000   124.501000   124.849000   125.447000  
 125.671000   126.130000   126.845000   127.498000   127.955000   127.996000  
 128.545000   129.130000   129.442000   129.648000   129.709000   130.049000  
 130.524000   130.897000   131.016000   132.066000   132.528000   132.632000  
 132.854000   133.427000   133.825000   134.288000   134.392000   134.988000  
 135.429000   135.564000   136.346000   136.520000   136.698000   137.182000  
 137.546000   138.401000   138.981000   139.218000   139.326000   139.487000  
 139.941000   140.564000   140.824000   141.217000   141.823000   142.339000  
 143.068000   143.116000   143.762000   144.307000   144.488000   144.718000  
 144.913000   145.024000   145.630000   145.874000   146.048000   146.284000  
 146.424000   146.842000   146.931000   147.632000   148.052000   148.442000  
 148.849000   149.215000   150.285000   151.417000   151.827000   151.902000  
 152.661000   152.855000   153.311000   154.268000   154.337000   154.591000  
 154.750000   155.059000   155.406000   155.932000   156.751000   157.031000  
 157.353000   157.785000   158.374000   158.881000   159.225000   159.407000  
 159.900000   160.226000   160.844000   161.307000   161.423000   161.809000  
 162.029000   162.265000   162.773000   163.058000   163.209000   163.655000  
 164.249000   164.636000   164.820000   165.119000   165.388000   165.446000  
 165.940000   166.322000   166.992000   167.651000   167.825000   168.027000  
 168.636000   168.811000   169.214000   169.287000   169.623000   170.019000  
 170.519000   170.789000   170.826000   171.459000   172.063000   172.213000  
 173.388000   173.563000   173.745000   174.406000   175.010000   175.763000  
 176.522000   177.301000   177.736000   178.062000   178.135000   178.600000  
 178.651000   179.283000   180.223000   180.392000   180.739000   181.646000  
 181.761000   181.991000   182.490000   182.741000   183.241000   183.469000  
 183.889000   184.109000   184.529000   184.585000   184.951000   184.993000  
 185.315000   185.608000   185.848000   186.992000   187.195000   187.673000  
 188.093000   188.447000   188.709000   188.934000   189.234000   189.868000  
 190.537000   191.804000   192.267000   192.794000   193.140000   193.381000  
 194.767000   195.266000   195.317000   195.506000   195.581000   196.423000  
 196.537000   197.054000   197.314000   197.869000   198.578000   198.878000  
 199.733000   200.316000   200.600000   200.816000   201.525000   202.365000  
 202.479000   203.216000   203.598000   203.711000   204.504000   204.767000  
 205.060000   205.286000   206.212000   206.587000   207.066000   207.585000  
 207.703000   208.019000   208.255000   208.658000   208.808000   209.028000  
 209.520000   210.847000   211.521000   211.962000   212.325000   213.733000  
 214.235000   214.277000   214.429000   214.988000   215.210000   215.443000  
 215.591000   216.244000   216.850000   217.102000   217.617000   218.112000  
 218.511000   218.592000   219.162000   219.574000   219.684000   220.665000  
 221.572000   221.800000   222.474000   222.879000   223.156000   223.479000  
 224.316000   224.394000   224.655000   224.698000   225.347000   225.822000  
 225.936000   226.404000   226.645000   227.354000   227.703000   227.976000  
 228.254000   228.514000   228.907000   229.136000   229.386000   230.186000  
 230.466000   231.081000   231.423000   231.704000   232.124000   232.951000  
 233.056000   233.959000   234.419000   234.721000   235.296000   235.699000  
 236.109000   236.378000   236.490000   237.367000   237.910000   238.282000  
 238.481000   238.841000   239.247000   239.555000   239.819000   240.183000  
 240.986000   241.137000   241.572000   241.909000   242.474000   242.581000  
 242.965000   243.877000   244.130000   244.497000   245.185000   245.457000  
 245.650000   245.866000   246.172000   246.707000   247.193000   247.399000  
 247.766000   248.309000   248.908000   249.245000   249.797000   249.955000  
 250.461000   251.188000   251.285000   252.139000   254.364000   254.568000  
 254.818000   255.281000   256.278000   256.332000   256.481000   256.726000  
 256.852000   257.011000   257.862000   258.045000   258.478000   258.946000  
 259.201000   259.737000   259.862000   260.176000   260.531000   260.896000  
 261.275000   262.332000   262.998000   263.099000   263.242000   264.081000  
 264.512000   265.087000   266.079000   266.994000   267.332000   267.561000  
 268.091000   268.454000   268.548000   268.871000   269.271000   269.795000  
 270.030000   270.151000   270.575000   270.961000   271.216000   271.392000  
 271.858000   273.338000   273.557000   274.251000   274.342000   274.544000  
 274.813000   275.304000   275.911000   275.935000   276.933000   277.503000  
 278.840000   279.262000   279.562000   280.277000   280.598000   281.188000  
 281.994000   282.036000   282.377000   283.574000   283.838000   283.954000  
 284.376000   285.118000   285.379000   286.542000   286.559000   287.062000  
 287.422000   287.526000   288.315000   288.334000   288.976000   289.345000  
 289.761000   289.924000   290.086000   290.515000   290.718000   291.281000  
 292.184000   292.296000   292.321000   292.895000   293.149000   293.517000  
 294.274000   294.632000   294.908000   295.038000   295.709000   296.268000  
 297.046000   297.187000   298.029000   298.117000   299.178000   299.592000  
 300.062000   300.459000   300.486000   301.031000   301.353000   301.856000  
 303.269000   303.696000   304.826000   305.187000   305.366000   305.693000  
 306.304000   306.882000   307.452000   309.097000   309.243000   309.612000  
 310.192000   310.333000   310.365000   310.474000   310.605000   310.964000  
 311.237000   312.180000   312.751000   314.426000   314.666000   314.865000  
 315.301000   315.648000   316.042000   316.222000   316.517000   317.264000  
 317.359000   317.970000   318.495000   318.771000   319.015000   319.332000  
 319.480000   320.972000   321.663000   321.886000   322.275000   322.671000  
 322.854000   323.034000   323.217000   323.366000   324.178000   324.409000  
 324.935000   325.224000   326.165000   326.253000   327.216000   327.908000  
 328.053000   328.131000   329.024000   329.369000   329.794000   330.516000  
 331.171000   331.564000   331.921000   332.596000   333.084000   333.439000  
 333.537000   333.973000   334.279000   335.238000   335.902000   336.101000  
 336.507000   336.866000   336.985000   337.722000   337.822000   338.155000  
 338.597000   338.809000   339.089000   339.347000   339.624000   340.736000  
 340.969000   341.045000   341.612000   342.265000   342.544000   344.456000  
 344.584000   345.778000   345.798000   346.141000   346.434000   346.808000  
 348.409000   348.877000   349.426000   349.990000   350.644000   350.943000  
 351.186000   352.242000   353.550000   354.289000   354.885000   355.076000  
 356.058000   356.891000   357.209000   357.687000   358.454000   359.015000  
 359.396000   359.892000   360.176000   360.649000   361.173000   361.216000  
 361.853000   361.942000   362.920000   363.304000   364.217000   364.810000  
 365.086000   365.355000   365.838000   366.704000   367.642000   367.801000  
 368.938000   369.091000   371.048000   372.222000   373.714000   374.030000  
 374.249000   375.462000   376.581000   379.405000   379.469000   379.851000  
 380.977000   382.201000   383.910000   384.094000   384.278000   384.489000  
 384.885000   386.524000   387.334000   388.047000   389.181000   390.167000  
 390.354000   390.688000   391.650000   391.737000   392.520000   392.804000  
 393.141000   394.005000   394.171000   394.545000   395.492000   396.058000  
 396.065000   397.638000   397.762000   398.189000   398.923000   399.729000  
 400.675000   400.895000   400.969000   401.369000   404.496000   406.366000  
 406.573000   407.199000   409.671000   409.707000   410.077000   411.299000  
 411.690000   411.897000   412.054000   412.771000   414.000000   414.922000  
 415.177000   416.764000   416.933000   416.980000   417.517000   417.544000  
 418.270000   418.464000   418.583000   418.944000   419.227000   419.466000  
 420.562000   420.616000   420.681000   421.480000   421.517000   421.749000  
 421.868000   422.243000   422.524000   422.643000   422.746000   423.636000  
 423.875000   424.301000   424.706000   425.138000   425.827000   426.039000  
 426.244000   426.866000   428.883000   429.825000   430.092000   430.096000  
 431.253000   431.721000   432.329000   432.999000   433.372000   433.571000  
 433.709000   434.012000   434.599000   434.747000   435.044000   435.310000  
 436.335000   436.675000   437.081000   438.707000   438.824000   440.025000  
 440.142000   440.824000   441.064000   442.471000   443.249000   443.414000  
 443.575000   444.665000   444.797000   445.539000   446.921000   447.032000  
 447.426000   451.143000   451.161000   452.236000   452.887000   456.668000  
 457.588000   457.835000   459.051000   459.567000   460.096000   460.655000  
 461.054000   462.002000   463.046000   463.336000   463.907000   464.917000  
 465.448000   465.486000   466.932000   467.200000   467.302000   468.404000  
 468.674000   468.938000   469.293000   469.529000   470.794000   471.421000  
 471.884000   472.349000   472.654000   473.069000   473.314000   473.560000  
 474.958000   475.732000   476.236000   476.518000   477.595000   477.911000  
 478.391000   478.861000   479.612000   481.106000   481.271000   481.627000  
 481.917000   482.671000   482.820000   483.016000   484.168000   486.474000  
 486.958000   487.421000   487.578000   487.737000   488.381000   488.546000  
 489.452000   489.766000   490.186000   490.614000   490.730000   492.510000  
 493.122000   494.238000   495.182000   496.468000   496.941000   497.271000  
 498.704000   499.330000   499.486000   500.241000   502.249000   502.473000  
 502.776000   504.190000   504.391000   505.113000   506.423000   506.561000  
 506.844000   507.042000   507.952000   508.030000   508.332000   510.066000  
 510.240000   510.846000   510.986000   512.297000   516.334000   516.564000  
 516.774000   516.904000   517.960000   518.490000   518.535000   520.963000  
 521.449000   522.084000   522.286000   522.388000   522.654000   524.518000  
 524.787000   525.260000   525.368000   526.009000   527.434000   528.264000  
 528.607000   530.549000   531.529000   532.187000   532.486000   533.844000  
 534.253000   534.658000   534.895000   535.767000   536.746000   538.167000  
 538.349000   538.427000   539.047000   540.581000   542.667000   542.931000  
 543.387000   543.574000   543.821000   545.944000   546.639000   547.521000  
 548.214000   548.393000   549.462000   551.952000   554.709000   555.084000  
 556.571000   556.645000   558.572000   558.639000   558.857000   559.609000  
 562.689000   562.861000   563.831000   565.337000   567.648000   568.442000  
 569.020000   571.711000   573.109000   575.031000   576.830000   577.688000  
 578.651000   580.194000   580.465000   580.891000   582.029000   583.558000  
 586.230000   588.117000   589.965000   591.021000   591.739000   591.827000  
 592.021000   595.105000   596.973000   598.892000   603.106000   604.308000  
 605.701000   605.819000   607.185000   608.335000   608.543000   609.217000  
 610.280000   614.198000   614.827000   616.087000   616.421000   618.127000  
 618.598000   621.178000   621.751000   621.907000   622.531000   624.131000  
 624.737000   625.339000   626.140000   627.150000   628.357000   628.617000  
 629.037000   629.296000   630.039000   630.363000   630.945000   631.089000  
 631.558000   632.118000   632.892000   633.001000   634.090000   634.187000  
 635.783000   635.849000   636.139000   636.356000   636.698000   637.714000  
 637.952000   638.158000   638.760000   640.218000   640.330000   640.902000  
 641.143000   641.343000   641.443000   645.244000   645.277000   645.474000  
 645.643000   646.123000   646.821000   648.320000   648.388000   648.900000  
 649.538000   649.989000   650.464000   651.418000   651.642000   651.706000  
 651.989000   653.969000   654.357000   654.938000   655.249000   656.431000  
 657.133000   657.385000   658.955000   659.009000   659.095000   659.281000  
 659.656000   659.691000   660.464000   660.492000   660.979000   661.962000  
 662.964000   663.257000   664.745000   665.028000   665.548000   665.618000  
 665.797000   666.096000   666.785000   668.392000   670.653000   671.220000  
 671.442000   672.950000   673.384000   673.902000   674.169000   674.877000  
 675.715000   675.982000   676.529000   677.001000   677.090000   677.216000  
 677.670000   677.911000   678.616000   679.019000   679.560000   680.027000  
 680.203000   680.404000   680.666000   681.068000   681.258000   681.426000  
 683.082000   683.298000   683.548000   683.710000   683.967000   684.257000  
 685.904000   686.044000   686.896000   687.348000   688.245000   688.724000  
 691.784000   692.185000   693.268000   694.020000   694.665000   695.104000  
 696.940000   697.433000   697.864000   698.304000   699.066000   699.067000  
 699.707000   702.605000   704.191000   704.330000   704.421000   709.133000  
 709.440000   709.798000   710.519000   710.644000   711.356000   711.360000  
 712.392000   712.406000   713.234000   714.015000   716.781000   716.806000  
 718.336000   719.257000   719.540000   719.708000   720.377000   720.958000  
 721.882000   722.534000   723.880000   723.933000   724.216000   724.518000  
 724.649000   724.782000   725.594000   726.700000   727.266000   727.817000  
 727.827000   728.084000   728.676000   729.415000   730.387000   730.467000  
 732.325000   733.318000   733.858000   734.106000   734.665000   734.849000  
 735.490000   735.827000   736.023000   737.250000   737.596000   737.676000  
 738.799000   738.837000   739.711000   740.210000   741.262000   741.502000  
